# Filename:      /home/cds/Sean/2016-05-20-HV-Amp-TFs/10000-count-ss-two-whiteners-channel-one
# Plot type:     Transfer function
# Output Format: XY  
# Channels:            A                        B                Conversion
# Column 1   G2:SSM-GENERAL_ONE_EXC    G2:SSM-GENERAL_ONE_IN1    Magnitude
# Column 2   G2:SSM-GENERAL_ONE_EXC    G2:SSM-GENERAL_ONE_IN1    Phase (degree)
# Column 3   G2:SSM-GENERAL_ONE_EXC    G2:SSM-GENERAL_TWO_IN1    Magnitude
# Column 4   G2:SSM-GENERAL_ONE_EXC    G2:SSM-GENERAL_TWO_IN1    Phase (degree)
# Column 5   G2:SSM-GENERAL_ONE_EXC    G2:SSM-GENERAL_THREE_IN1  Magnitude
# Column 6   G2:SSM-GENERAL_ONE_EXC    G2:SSM-GENERAL_THREE_IN1  Phase (degree)
# Column 7   G2:SSM-GENERAL_ONE_EXC    G2:SSM-GENERAL_FOUR_IN1   Magnitude
# Column 8   G2:SSM-GENERAL_ONE_EXC    G2:SSM-GENERAL_FOUR_IN1   Phase (degree)
# Data:
0.1465458    0.35717359   -1.0808382   2.8019858e-06 10.099923    5.5241361e-07 -149.14104   2.0729776e-05 91.847351   
0.16645537   0.35715804   -1.2275341   3.0329968e-06 -0.70193857  9.2004996e-07 -59.566853   8.9957221e-06 73.196045   
0.18906985   0.35713688   -1.3941339   3.2706532e-06 10.52787     3.1363456e-07 132.71834    1.3273003e-05 170.04517   
0.21475671   0.35710812   -1.583724    2.6968719e-06 -8.4486303   3.2637899e-07 -52.908798   4.6132845e-06 170.67043   
0.24393336   0.35707304   -1.7985187   1.8796112e-06 -15.011726   7.4798737e-07 57.464954    9.8101373e-06 -48.248257  
0.27707392   0.35702649   -2.0427384   1.9731422e-06 -19.075499   6.4887962e-07 -76.056381   1.2735193e-05 159.52455   
0.31471694   0.35696352   -2.3201916   2.7546666e-06 6.7614832    5.9425457e-07 -51.008469   2.164818e-05 -103.59533  
0.35747409   0.35688266   -2.6348805   4.1435683e-06 -13.211165   6.3514801e-07 -32.394451   1.3548887e-05 -1.6467922  
0.40604019   0.35677502   -2.9926021   2.3496411e-06 6.2871289    2.7577465e-07 88.768227    3.0878709e-06 153.58769   
0.46120444   0.35663718   -3.3987665   2.3625796e-06 -3.0673771   7.377692e-07 122.94182    5.7325275e-07 172.96169   
0.52386326   0.35646194   -3.8594694   1.9608069e-06 -15.108916   5.3454227e-07 48.863796    2.4910159e-06 170.4984    
0.59503484   0.35623464   -4.382854    2.9262005e-06 1.7055969    1.5111569e-07 -18.856129   9.1284783e-06 106.57532   
0.67587572   0.35593888   -4.9762278   3.2991584e-06 -11.386784   1.0224048e-06 38.432781    1.7802554e-07 124.53255   
0.7676996    0.35556424   -5.6491528   2.6820185e-06 2.8562183    6.0199136e-07 19.978157    5.6030185e-06 41.874496   
0.87199855   0.35507831   -6.4119158   2.6766338e-06 6.730835     4.6566126e-07 -64.49353    2.6088171e-06 155.07822   
0.99046749   0.35445395   -7.2760692   2.7777603e-06 -8.5385036   4.6487688e-07 127.75464    4.1523276e-06 96.061333   
1.1250315    0.35365099   -8.2545414   2.2288561e-06 -4.6354685   3.8262434e-07 47.403893    7.5932194e-06 -157.52704  
1.2778772    0.35262606   -9.3607683   1.7415667e-06 -8.6363449   4.9508458e-07 -10.559084   4.7541425e-06 -63.122486  
1.4514885    0.35132071   -10.610347   2.5492113e-06 -6.3499374   8.7144622e-07 147.42656    6.793874e-06 153.64514   
1.6486864    0.34965575   -12.019452   2.5252807e-06 0.043551411  7.0290474e-07 -11.017201   1.6090711e-06 65.903847   
1.8726754    0.34754229   -13.606607   3.0385424e-06 -23.780836   1.6488536e-07 -46.459167   2.9240177e-06 88.607124   
2.1270955    0.34486485   -15.389773   3.2118292e-06 -28.1919     6.3275155e-07 -91.239334   7.2301981e-07 39.223568   
2.4160807    0.34148082   -17.386591   2.8678437e-06 -21.045527   6.6057879e-07 -100.49818   6.0726784e-06 59.145966   
2.7443271    0.33722296   -19.613853   3.1095585e-06 -17.292868   2.1791408e-07 -144.76291   6.2857106e-07 -103.77391  
3.1171689    0.33191001   -22.086306   2.2302024e-06 -53.383095   2.7612572e-07 -104.46169   6.3449552e-06 -175.23557  
3.5406647    0.32532704   -24.813887   2.2265426e-06 -9.1685057   1.0049821e-06 17.170431    1.2349129e-06 134.24367   
4.0216961    0.31726804   -27.79932    2.0348198e-06 -64.245331   7.7874972e-07 115.26372    1.4811341e-06 -29.795607  
4.5680799    0.30751804   -31.03479    2.5656807e-06 -21.152597   6.9577652e-07 -159.63379   6.8489675e-07 117.38699   
5.1886954    0.29590529   -34.496536   1.8391547e-06 -54.037117   1.2037849e-06 -106.22766   1.7902887e-06 -147.25311  
5.8936267    0.28232658   -38.147785   2.1065746e-06 -50.380058   8.8825084e-07 168.73146    2.5995138e-07 -73.396011  
6.6943297    0.26676759   -41.926777   2.9989972e-06 -31.269175   5.829823e-07 172.04153    9.0213058e-07 -72.485802  
7.6038151    0.24939533   -45.747044   1.4922616e-06 -92.948738   3.7122038e-07 149.4561     6.8880363e-06 -6.406146   
8.6368628    0.23048997   -49.50177    3.2072705e-06 -39.797649   5.6780027e-07 -98.415398   7.0001511e-07 -30.09194   
9.8102589    0.21055825   -53.066475   2.5945249e-06 -81.179604   1.3255499e-06 -137.33699   4.2143364e-07 -116.54298  
11.143071    0.19019111   -56.299461   1.8306561e-06 -60.963253   9.2295312e-07 -87.695137   7.9083873e-07 77.267563   
12.656959    0.1700424    -59.072712   2.1122237e-06 3.097425     4.789905e-07 -71.133324   1.0066705e-06 -31.822723  
14.376522    0.15070547   -61.237549   8.936027e-07 67.360947    1.2232974e-06 -44.054905   1.3493122e-06 17.835241   
16.329702    0.13270468   -62.706367   1.9709498e-06 -10.452078   6.2335397e-07 -50.736492   1.0822318e-06 47.5844     
18.548241    0.11643007   -63.410286   8.5405173e-07 176.86322    2.5442416e-06 85.075577    1.7781045e-06 135.61179   
21.06819     0.10212404   -63.29353    7.4635051e-07 26.359079    1.0273294e-06 -80.344391   1.2295253e-06 -36.137936  
23.930494    0.089771494  -62.448151   1.6910079e-06 136.61801    7.1522538e-07 -27.060669   2.2971485e-06 51.728886   
27.181669    0.079344794  -60.838348   1.3807575e-06 -26.201956   2.8702077e-06 137.49933    2.3406512e-06 26.099604   
30.874546    0.07070405   -58.623013   9.3730768e-07 -145.67627   7.0008804e-07 179.64934    6.5109384e-07 -130.90282  
35.069134    0.063612327  -55.923359   2.5011348e-06 57.118137    1.7557073e-06 92.870148    2.3843465e-06 149.63994   
39.833591    0.057868112  -52.854843   3.9864844e-06 12.729569    2.7318556e-06 11.147929    2.581789e-06 -58.726021  
45.24535     0.053237427  -49.576935   1.2733931e-06 -101.31064   1.5725691e-06 -108.99128   4.1353181e-07 105.90807   
51.392342    0.04957873   -46.212559   3.2476851e-06 17.363983    4.7230164e-06 -67.300346   1.6245141e-06 102.78342   
58.374458    0.046670157  -42.921844   6.7186471e-07 -16.087793   1.9508966e-06 -137.82285   1.2660672e-06 1.0278277   
66.305161    0.044356637  -39.78059    3.0087858e-06 48.114784    4.5432225e-06 -142.45375   1.05354e-06  178.84637   
75.313316    0.042579386  -36.837337   1.943577e-06 -55.994888   9.5642486e-07 98.842354    3.0502501e-06 -140.9493   
85.545311    0.041150764  -34.211243   3.3074887e-06 -3.1091752   1.7840836e-06 -22.271524   2.3392704e-06 -141.57739  
97.167419    0.040043484  -31.913504   8.3592323e-07 84.759804    5.0047961e-06 -161.43353   1.9740462e-06 90.956596   
110.3685     0.039188903  -29.967312   3.0729286e-06 114.02976    2.8498255e-06 -68.740501   3.5733001e-06 -116.86835  
125.36307    0.038523164  -28.39797    5.8089455e-07 -85.666283   3.125692e-06 126.03848    5.0539311e-06 174.90355   
142.39478    0.038006198  -27.198803   1.9656275e-06 93.15641     1.6720786e-06 115.64912    4.3252317e-06 160.13768   
161.7404     0.037581477  -26.389175   3.7498037e-07 67.522469    1.8487722e-06 145.48904    4.8449965e-07 -163.95824  
183.71431    0.037291612  -25.947876   5.632628e-06 24.209925    5.8597843e-06 177.27663    1.9287493e-06 -22.774561  
208.67355    0.03701083   -25.928291   5.160186e-06 101.48903    3.6014969e-06 -85.292999   1.8795519e-06 146.11765   
237.02376    0.036810625  -26.299526   1.4724741e-06 -144.58203   1.3247591e-06 -169.73412   1.0409976e-06 60.703449   
269.22559    0.036679555  -27.0809     5.2323157e-06 5.5624981    2.45263e-06  -141.2332    1.4807036e-06 -68.821114  
305.80234    0.036543421  -28.280199   3.9971023e-06 -156.74742   3.6174647e-06 147.53188    1.981178e-06 13.731709   
347.34836    0.036435384  -29.953909   1.3753549e-06 -147.99606   2.6225939e-06 178.90479    3.7880884e-06 149.98128   
394.53879    0.036360022  -32.081551   2.6185467e-06 55.801327    2.2613117e-06 -151.47546   1.7671167e-06 -11.880902  
448.14047    0.036322646  -34.75399    1.6521255e-06 74.190979    6.8586456e-07 93.377029    3.1603579e-06 84.209114   
509.02444    0.036264509  -37.988071   1.9704767e-06 116.48392    1.4278173e-06 133.61844    9.714131e-07 28.650877   
578.18005    0.03620578   -41.832165   1.4304809e-06 38.392521    3.0318697e-06 -147.92593   4.801082e-06 156.3006    
656.73102    0.036144093  -46.356354   3.8139276e-06 -49.851761   2.4239444e-06 8.9420919    3.0366753e-06 -147.12553  
745.95392    0.036075622  -51.62458    3.9732608e-06 -44.548153   6.9441353e-06 -157.53732   7.9539569e-07 -175.91991  
847.29852    0.036008447  -57.731598   1.9966974e-06 -66.143997   2.0433552e-06 48.49683     9.8893872e-07 -96.342827  
962.41174    0.035931364  -64.779007   2.4583699e-06 -159.1629    3.1132199e-06 -23.817476   1.7040021e-06 -104.97559  
1093.1641    0.035852186  -72.872612   5.2960222e-06 -146.00398   1.5295734e-06 42.681736    1.3643805e-06 114.03699   
1241.6804    0.035746731  -82.144402   3.4003945e-06 173.77109    3.5431817e-06 -163.80971   3.0459014e-06 77.01252    
1410.374     0.035619624  -92.747597   4.0394461e-06 -74.150192   1.2702776e-06 109.24928    2.1860351e-06 -85.625198  
1601.9861    0.035455927  -104.86301   1.2061001e-06 -48.608902   3.6360946e-06 16.092579    2.5887762e-06 -12.123529  
1819.6305    0.035252973  -118.66984   3.5985076e-06 -7.3680596   4.3568139e-06 -112.0502    7.554209e-07 29.990459   
2066.8438    0.035015915  -134.39908   1.0457375e-06 -104.03487   4.3921891e-06 -49.436192   4.7885565e-06 58.869766   
2347.6433    0.03469092   -152.31377   2.8199577e-06 0.42934164   3.7323418e-06 140.26869    6.4062538e-06 44.063076   
2666.592     0.034305345  -172.71075   4.6009777e-06 -126.41986   4.2974007e-06 166.92877    2.1682104e-06 -36.106705  
3028.8728    0.033835851  164.07993    5.2421951e-06 -104.07631   4.8739298e-06 130.96094    6.601666e-06 161.48839   
3440.3726    0.033270206  137.65295    4.3504651e-06 -152.8154    1.0499831e-06 -14.139565   4.6421646e-06 31.084421   
3907.7786    0.032559071  107.52657    1.3516493e-06 -143.40559   4.2151796e-06 143.63046    2.011119e-06 -126.84698  
4438.6855    0.031732988  73.124168    2.2232648e-06 158.31581    1.7009504e-06 109.00883    2.1567735e-06 -63.837555  
5041.7217    0.030726153  33.732494    2.0748198e-06 161.80945    4.5673951e-06 161.50529    4.7743383e-06 151.69518   
5726.6851    0.029491864  -11.506612   1.3563736e-06 75.425003    8.6488981e-06 28.212244    2.463456e-06 55.300144   
6504.7075    0.027857238  -63.754429   3.5042842e-06 114.84603    2.7370916e-06 68.797249    3.1187776e-06 -119.26752  
7388.4312    0.025555091  -124.3721    1.3323502e-06 121.44863    2.4660662e-06 -172.73351   4.3212581e-06 -95.163345  
8392.2168    0.022190042  165.25365    3.4101395e-06 131.83746    3.4814661e-06 -74.045662   2.0827324e-06 125.75666   
9532.375     0.01745523   84.360359    6.846532e-06 170.63953    2.4227627e-06 -119.48017   4.4102853e-06 -5.5262222  
10827.436    0.01185485   -6.0416064   1.5410151e-06 -111.08476   2.0760394e-06 88.943352    6.0943084e-06 96.216942   
12298.44     0.006809284  -103.17311   2.3876498e-06 -97.294418   2.7308365e-06 157.61212    2.3884036e-06 -45.402035  
13969.296    0.0033808437 155.46829    2.4289204e-06 -178.06929   2.6777743e-06 99.431465    8.8391153e-07 -35.6283    
15867.151    0.0015160027 49.94101     2.9318358e-06 -42.044109   1.2324108e-06 23.963449    3.7948382e-06 125.49848   
18022.848    0.00063911831 -61.133545   2.8070624e-06 53.968876    5.1787465e-06 -156.95998   3.008561e-06 -82.862122  
20471.416    0.00025549653 -178.70706   1.2194131e-06 -104.78756   2.4488727e-06 -174.96646   3.9928054e-06 -80.428864  
23252.645    9.887472e-05 52.242455    1.3910576e-06 107.46642    3.0359743e-06 54.045628    1.8833704e-06 -11.237762  
26411.727    3.7296439e-05 -84.144997   2.7180197e-06 117.2656     1.202667e-06 -128.1013    2.0259586e-06 159.61641   
30000        8.9548912e-06 127.90191    4.663681e-06 83.623375    1.864316e-06 121.33549    1.5961346e-06 99.041336   