# Filename:      /home/cds/Sean/2016-05-20-HV-Amp-TFs/10000-count-ss-two-whiteners-channel-two
# Plot type:     Transfer function
# Output Format: XY  
# Channels:            A                        B                Conversion
# Column 1   G2:SSM-GENERAL_TWO_EXC    G2:SSM-GENERAL_ONE_IN1    Magnitude
# Column 2   G2:SSM-GENERAL_TWO_EXC    G2:SSM-GENERAL_ONE_IN1    Phase (degree)
# Column 3   G2:SSM-GENERAL_TWO_EXC    G2:SSM-GENERAL_TWO_IN1    Magnitude
# Column 4   G2:SSM-GENERAL_TWO_EXC    G2:SSM-GENERAL_TWO_IN1    Phase (degree)
# Column 5   G2:SSM-GENERAL_TWO_EXC    G2:SSM-GENERAL_THREE_IN1  Magnitude
# Column 6   G2:SSM-GENERAL_TWO_EXC    G2:SSM-GENERAL_THREE_IN1  Phase (degree)
# Column 7   G2:SSM-GENERAL_TWO_EXC    G2:SSM-GENERAL_FOUR_IN1   Magnitude
# Column 8   G2:SSM-GENERAL_TWO_EXC    G2:SSM-GENERAL_FOUR_IN1   Phase (degree)
# Data:
0.87199855   2.299588e-07 106.36217    0.35538474   -6.2836447   1.6291828e-07 -141.15083   2.5240176e-06 49.81263    
0.99046749   3.0738599e-07 -99.425705   0.35479313   -7.1306276   2.6929436e-07 63.21386     9.0926216e-07 -96.637192  
1.1250315    2.0155231e-07 -6.8370471   0.35403335   -8.0899506   4.7573354e-07 63.030491    2.3298689e-07 29.656147   
1.2778772    2.08866e-07  68.375511    0.35306019   -9.1752653   4.9323381e-07 120.4638     1.4412e-06   -32.572636  
1.4514885    8.4108194e-07 -149.44215   0.35181454   -10.401977   3.7495849e-07 -89.903091   7.0262486e-06 -77.492607  
1.6486864    3.9825926e-07 20.254919    0.35022202   -11.785904   6.7574274e-07 -65.630569   1.0050011e-06 -41.515617  
1.8726754    3.1741433e-07 130.55655    0.34819221   -13.345992   6.5328624e-07 -23.104725   4.01125e-06  108.82076   
2.1270955    1.3860055e-06 -129.71812   0.3456094    -15.098447   4.5163247e-08 143.02095    6.4591933e-07 -140.84006  
2.4160807    5.5706516e-07 103.50797    0.34234792   -17.062351   8.2668163e-07 126.30442    9.3465218e-07 38.45887    
2.7443271    5.0078506e-07 -15.891564   0.33823779   -19.255102   6.3937358e-07 1.2355031    2.8717818e-07 11.265454   
3.1171689    4.3478357e-07 -117.25799   0.33310148   -21.691072   2.8308429e-07 -80.312653   3.7754572e-07 34.47514    
3.5406647    1.3608997e-06 -161.73196   0.32673785   -24.381575   9.8751343e-07 -143.78259   3.0926711e-07 -46.644104  
4.0216961    5.4068647e-07 -104.60706   0.31890991   -27.328695   9.4257445e-07 -52.314491   2.8468563e-07 -63.383583  
4.5680799    2.6195207e-07 18.485529    0.30941951   -30.529922   4.1007965e-07 -155.70644   6.6259901e-07 -41.338779  
5.1886954    6.9555864e-07 101.39895    0.29808587   -33.962215   1.1532908e-06 -125.30331   2.3178998e-06 -25.602087  
5.8936267    1.0486326e-06 -72.134933   0.28476569   -37.588112   1.0361694e-06 -162.3744    1.2122499e-06 -94.893394  
6.6943297    5.1586522e-07 19.86479     0.26949799   -41.353336   1.2877733e-06 146.19476    2.5454383e-06 34.150177   
7.6038151    6.995615e-07 -2.419662    0.25236756   -45.170906   9.046567e-07 -21.141874   3.9846239e-07 97.600052   
8.6368628    3.4034136e-07 -106.45736   0.23366974   -48.94244    4.1328619e-07 95.751747    2.1956537e-06 -17.4725    
9.8102589    1.0620254e-06 69.470757    0.21385576   -52.541409   1.6067925e-06 -73.451065   1.8678079e-06 -148.89491  
11.143071    9.4125249e-07 -133.36687   0.19349603   -55.829868   1.1375549e-06 -75.571243   1.1741944e-06 -160.5121   
12.656959    8.9692344e-07 -128.20479   0.17325084   -58.670834   8.0378305e-07 -68.411171   2.2766994e-06 124.83504   
14.376522    1.238602e-06 113.26576    0.15372263   -60.933361   5.2195725e-07 131.47176    7.669878e-07 -32.237133  
16.329702    1.5164704e-06 -58.73148    0.13548876   -62.510815   4.6223354e-07 -25.775045   1.9690851e-06 -148.78488  
18.548241    2.0996245e-06 -134.68336   0.11892807   -63.327648   1.4319453e-06 173.1844     1.604132e-06 133.90042   
21.06819     2.0142484e-06 18.959681    0.10430646   -63.350113   7.2234144e-07 -122.67244   1.3438178e-06 -94.180428  
23.930494    2.0185039e-06 154.50777    0.09164983   -62.585739   1.0743481e-06 -108.84482   1.139068e-06 -166.42476  
27.181669    1.955997e-06 -4.3799129   0.080934122  -61.095524   1.5859181e-06 -90.636314   1.930827e-06 143.12891   
30.874546    3.422366e-06 19.776342    0.071991503  -58.961739   5.1375906e-07 47.480099    4.746353e-07 122.21606   
35.069134    1.2287395e-06 138.25658    0.064639822  -56.317402   1.4136283e-06 44.269188    1.83997e-06  143.78546   
39.833591    1.5529365e-06 19.446869    0.058712274  -53.29678    4.4649564e-06 -107.43421   1.7781691e-06 30.205257   
45.24535     5.6499084e-07 75.587196    0.053955402  -50.046387   2.8671618e-06 -40.214401   2.6173288e-06 -83.210518  
51.392342    1.1746758e-06 15.272834    0.050155994  -46.704514   1.428615e-06 -76.106796   3.4136835e-06 -100.44144  
58.374458    2.0033619e-06 120.86111    0.047137041  -43.403923   1.8931263e-06 62.618397    1.2998559e-06 -3.584934   
66.305161    3.7139927e-07 144.67786    0.044757329  -40.239147   3.6605786e-06 37.447361    2.2897443e-06 145.91313   
75.313316    1.1294194e-06 -126.64678   0.042883586  -37.295128   2.231794e-06 133.36565    2.8123513e-06 -155.94658  
85.545311    2.3423786e-06 111.52028    0.041415792  -34.643219   1.3024189e-06 -90.272552   3.8022067e-06 -2.1841018  
97.167419    2.6131379e-06 140.29143    0.040268265  -32.311115   2.4684343e-06 -157.09503   5.0528379e-06 20.515505   
110.3685     1.9928759e-06 137.87827    0.039373592  -30.329861   1.4028293e-06 5.1863623    3.7845004e-06 -60.576702  
125.36307    3.1654881e-06 70.947891    0.038681265  -28.729523   3.9024681e-06 -115.29689   2.8677998e-06 155.21594   
142.39478    3.0649821e-06 -95.658997   0.038143661  -27.499779   1.9433724e-06 40.143562    1.7031912e-06 63.371433   
161.7404     2.5667955e-06 -32.410942   0.037717223  -26.651695   2.2959284e-06 -125.22816   5.0919293e-06 44.583752   
183.71431    3.1752709e-06 -100.92112   0.037387121  -26.197264   3.00234e-06  -112.83472   2.6145428e-06 -90.700272  
208.67355    3.9083779e-06 105.96516    0.037132651  -26.133305   5.8675919e-06 -114.9585    1.32312e-06  -143.66449  
237.02376    2.9442228e-06 -1.8714739   0.036927454  -26.484081   6.3331964e-07 150.95216    1.6785248e-06 -4.2779655  
269.22559    7.0257747e-06 -99.195496   0.036770798  -27.243597   2.2782408e-06 -3.4851699   3.9281199e-06 -132.24603  
305.80234    1.7121715e-06 105.03032    0.03664472   -28.432106   2.3009527e-06 91.616562    2.216319e-06 -101.87535  
347.34836    6.9342332e-06 -96.554756   0.036542553  -30.0809     6.1792286e-07 -79.288246   4.1476751e-06 -159.2789   
394.53879    3.3485117e-06 -3.4941933   0.036456011  -32.210953   2.2019658e-06 -45.73914    5.6050767e-06 -45.190811  
448.14047    2.5380018e-06 -67.641136   0.036391485  -34.862152   3.6842973e-06 85.894669    5.5298674e-06 174.30208   
509.02444    2.299746e-06 115.55444    0.036329769  -38.080456   5.7633897e-06 -53.515354   2.8400245e-06 146.82475   
578.18005    2.5822121e-06 70.816078    0.036272723  -41.910942   4.3317868e-06 17.946478    2.0308728e-06 46.140224   
656.73102    1.7152643e-06 133.25098    0.036216971  -46.420593   3.6950844e-06 -121.5608    3.0065294e-06 -83.763321  
745.95392    2.7887763e-06 146.36485    0.036162578  -51.681351   5.8633368e-06 153.26064    2.9032947e-06 -69.825424  
847.29852    1.8078606e-06 138.30655    0.036091771  -57.778893   4.6335335e-06 62.870243    3.301956e-06 82.715797   
962.41174    7.5315461e-07 -102.4474    0.036018278  -64.822723   1.6656351e-06 -58.270386   3.6375759e-06 -16.622141  
1093.1641    2.9693233e-06 -138.48987   0.035934526  -72.911919   8.8807985e-07 160.36833    3.796265e-06 -16.291346  
1241.6804    1.2698092e-06 -24.723108   0.035829134  -82.186646   4.8190104e-06 -64.728058   3.6251436e-06 -56.09713   
1410.374     2.3222487e-06 153.89546    0.035700548  -92.786476   3.315816e-06 -73.90081    4.209071e-06 99.396812   
1601.9861    3.7359002e-06 -115.32655   0.035537828  -104.90119   2.4302226e-06 -61.66082    4.1800408e-06 -13.031917  
1819.6305    3.0173414e-06 8.7135839    0.035340205  -118.70662   8.7239232e-07 -26.618134   1.3918537e-06 -72.302162  
2066.8438    9.2740027e-07 -0.26422685  0.035085876  -134.43913   3.9148572e-06 -148.39015   2.6971643e-06 93.569      
2347.6433    4.173367e-06 -138.31137   0.034767028  -152.34972   3.229384e-06 50.090874    3.1924894e-06 75.906021   
2666.592     5.087054e-06 124.43653    0.034385145  -172.74504   5.6174753e-07 128.64841    5.2624914e-06 -88.447891  
3028.8728    3.8393155e-06 109.17085    0.033916164  164.0426     2.8519066e-06 92.210503    3.099168e-06 124.56819   
3440.3726    1.2928799e-06 24.854616    0.033345543  137.59769    2.8177751e-06 94.053505    2.5595671e-06 -176.69243  
3907.7786    1.5383952e-06 9.9624329    0.032660447  107.46021    8.8778586e-07 -82.568939   5.820968e-06 158.15833   
4438.6855    3.3099448e-06 -12.382514   0.031833731  73.042061    1.7416055e-06 61.919834    2.6170842e-06 -119.65107  
5041.7217    4.0346436e-06 -111.70419   0.030845569  33.644573    2.043359e-06 46.302296    3.7638442e-06 27.207335   
5726.6851    6.1589362e-06 -81.18866    0.029611873  -11.635859   3.4347729e-06 91.483414    1.9755364e-06 77.348846   
6504.7075    4.73207e-06  178.4727     0.027983148  -63.945061   1.5844558e-06 90.832031    1.4865819e-06 44.783241   
7388.4312    4.9849873e-06 87.844353    0.02568673   -124.65848   2.551684e-06 45.241199    1.067586e-06 -77.120811  
8392.2168    1.4953087e-06 96.703789    0.022295851  164.82629    4.5392408e-06 94.185509    2.9870646e-06 154.02255   
9532.375     7.065459e-07 135.09596    0.017516803  83.787849    2.6397174e-06 146.73911    2.518063e-06 160.7321    
10827.436    2.4676663e-06 -113.14008   0.011865153  -6.7563825   3.6084805e-06 160.18289    3.1963848e-06 -160.34647  
12298.44     4.9967293e-06 -160.00482   0.0067823138 -103.99228   1.1534198e-06 -1.4927521   3.6281037e-06 -82.024651  
13969.296    6.2726949e-06 -130.31224   0.0033500444 154.6497     1.351146e-06 -26.408073   2.7842623e-06 -30.997326  
15867.151    1.1231149e-06 118.07246    0.0015009108 49.057816    1.834039e-06 79.16848     1.8123649e-06 -162.99879  
18022.848    3.1786467e-06 -103.57317   0.00062866812 -61.395588   1.0933293e-06 -152.27867   3.4187444e-06 -64.02916   
20471.416    3.4852458e-06 120.50734    0.00025286787 179.78008    3.1851628e-06 -152.88965   1.6621707e-06 132.36226   
23252.645    2.5247837e-06 14.253724    9.9643941e-05 49.873692    2.9230512e-06 -2.5077212   4.6374362e-06 -79.104752  
26411.727    8.0401787e-07 -17.443096   4.0324914e-05 -88.884773   4.3697878e-06 -18.812151   9.5851249e-07 120.06108   
30000        1.8094677e-06 -101.89252   1.7589919e-05 125.52567    2.6992618e-06 107.77695    5.6463468e-06 -144.56729  