# Filename:      /home/cds/Sean/2016-05-20-HV-Amp-TFs/10000-count-ss-two-whiteners-channel-four
# Plot type:     Transfer function
# Output Format: XY  
# Channels:            A                        B                Conversion
# Column 1   G2:SSM-GENERAL_FOUR_EXC    G2:SSM-GENERAL_ONE_IN1    Magnitude
# Column 2   G2:SSM-GENERAL_FOUR_EXC    G2:SSM-GENERAL_ONE_IN1    Phase (degree)
# Column 3   G2:SSM-GENERAL_FOUR_EXC    G2:SSM-GENERAL_TWO_IN1    Magnitude
# Column 4   G2:SSM-GENERAL_FOUR_EXC    G2:SSM-GENERAL_TWO_IN1    Phase (degree)
# Column 5   G2:SSM-GENERAL_FOUR_EXC    G2:SSM-GENERAL_THREE_IN1  Magnitude
# Column 6   G2:SSM-GENERAL_FOUR_EXC    G2:SSM-GENERAL_THREE_IN1  Phase (degree)
# Column 7   G2:SSM-GENERAL_FOUR_EXC    G2:SSM-GENERAL_FOUR_IN1   Magnitude
# Column 8   G2:SSM-GENERAL_FOUR_EXC    G2:SSM-GENERAL_FOUR_IN1   Phase (degree)
# Data:
0.67587572   3.4646982e-07 151.65117    3.9061024e-07 -4.7137871   1.3824995e-06 -71.662003   0.35593069   -4.7553997  
0.7676996    6.3061344e-07 -3.1441414   1.2592964e-06 7.6445794    7.3045499e-07 10.726149    0.3555837    -5.3992205  
0.87199855   8.0284633e-07 -89.706268   4.1935215e-07 102.89239    1.3087117e-07 19.478397    0.35516873   -6.1274657  
0.99046749   3.4758193e-07 154.05403    3.7287464e-07 95.558907    7.551684e-07 88.954475    0.35458687   -6.9545627  
1.1250315    5.9939958e-07 43.958462    9.0119494e-07 174.01172    1.9192015e-07 69.537064    0.3538779    -7.8913794  
1.2778772    4.4284516e-07 -136.56824   8.6682707e-07 -4.0003505   7.0313257e-07 93.501572    0.35297623   -8.9490242  
1.4514885    2.8229101e-07 -128.63269   5.3309992e-07 57.369663    5.6088288e-07 21.615522    0.3517746    -10.14711   
1.6486864    2.0613123e-07 -66.386856   7.0788326e-07 -130.15129   7.4724744e-07 -58.969673   0.35024369   -11.498617  
1.8726754    8.8254518e-07 -174.94502   4.9154664e-07 71.968292    7.2978287e-07 -33.71492    0.34832987   -13.022404  
2.1270955    1.0765972e-06 146.62875    9.4100898e-07 -161.93581   7.9689528e-07 -173.42442   0.34585699   -14.735126  
2.4160807    4.4619711e-07 -116.18709   5.3461667e-07 162.83809    7.4430665e-07 135.2793     0.34278113   -16.655973  
2.7443271    1.0606153e-06 -147.73512   3.6594867e-07 52.947803    8.9812983e-07 -50.475311   0.33882287   -18.802505  
3.1171689    3.8272549e-07 156.83804    3.8758643e-07 -41.476254   3.9557023e-07 -77.062256   0.33391291   -21.190071  
3.5406647    1.2763602e-06 132.595      1.3903792e-06 -79.312645   1.0614979e-06 162.43892    0.32781246   -23.82914   
4.0216961    8.7871126e-07 121.16383    2.1777285e-07 140.3611     9.435829e-07 -4.6333461   0.32032093   -26.729048  
4.5680799    1.1350119e-06 97.092598    6.6440651e-07 -148.32895   8.6264657e-07 -9.1303997   0.31120923   -29.879036  
5.1886954    2.5151419e-07 -23.392153   6.0692258e-07 111.43064    1.2464654e-06 -70.571442   0.3002677    -33.268772  
5.8936267    7.5645397e-07 -128.26372   6.2798671e-07 -2.1720049   9.3274878e-08 0.38966754   0.28737345   -36.863827  
6.6943297    3.6275125e-07 109.78482    8.0908501e-07 -104.48572   1.8923926e-07 25.672741    0.27250108   -40.606461  
7.6038151    1.1736438e-06 -93.305267   8.1838482e-07 -22.569437   1.488153e-06 -152.91313   0.25573197   -44.426666  
8.6368628    1.2044462e-06 104.33582    3.2408352e-07 -149.89066   5.8432425e-07 4.1652398    0.23731652   -48.218277  
9.8102589    1.577992e-06 -4.0829277   6.2370765e-07 28.539249    7.8481423e-07 -126.17548   0.21765463   -51.864479  
11.143071    8.9007602e-07 114.14985    1.5596837e-06 -111.71281   9.7264729e-07 158.40105    0.19735706   -55.229488  
12.656959    8.0606543e-07 -108.98987   9.1650764e-07 113.68026    2.0869036e-06 0.76640159   0.17705299   -58.173107  
14.376522    5.7143086e-07 118.06012    9.7119801e-07 -44.419621   1.5896252e-06 -22.115471   0.1573724    -60.566635  
16.329702    1.8410777e-06 162.01595    2.3779432e-06 -91.071014   8.0769559e-07 4.5965586    0.13885276   -62.288639  
18.548241    1.5573971e-06 -47.950554   4.1478549e-07 161.27284    3.1450884e-06 44.753452    0.12194867   -63.265965  
21.06819     1.5951869e-06 122.54916    1.6628136e-06 167.68367    3.43766e-07  72.181274    0.10693377   -63.450321  
23.930494    1.9628071e-06 122.08344    1.8685494e-06 81.492165    2.759671e-07 155.73143    0.093886636  -62.844654  
27.181669    1.074671e-06 8.6818943    1.0900642e-06 -35.05933    9.8288012e-07 136.87671    0.08282128   -61.494812  
30.874546    7.877232e-07 4.104424     1.3784462e-06 -73.254059   2.9263465e-06 -60.71524    0.073562846  -59.484512  
35.069134    3.2732869e-06 -10.895408   9.9414012e-07 -88.144974   1.5280983e-06 79.301018    0.065932162  -56.936035  
39.833591    1.0127094e-06 44.136494    1.5921903e-06 -94.486244   2.4843869e-06 -65.791206   0.059754543  -53.982426  
45.24535     1.6546664e-06 137.00017    2.2472475e-06 -12.471657   2.1331418e-06 -93.14621    0.054781925  -50.768318  
51.392342    2.2406286e-06 -153.69621   3.007749e-06 4.1328392    1.6040159e-06 23.548613    0.050816465  -47.448017  
58.374458    1.4045435e-06 138.0584     8.6559589e-07 -29.664318   1.7506726e-06 126.41122    0.047663447  -44.136894  
66.305161    1.5525039e-06 128.9641     1.6469554e-06 -15.449007   2.3487778e-06 169.36018    0.045178428  -40.948128  
75.313316    1.4488159e-06 65.996841    8.250874e-07 49.423073    1.6735511e-06 -122.00529   0.043217964  -37.968857  
85.545311    3.8700782e-06 11.537583    1.0938064e-06 -116.08884   1.7592362e-06 -41.279633   0.041679773  -35.263542  
97.167419    5.0127865e-06 1.9554387    2.9758837e-06 10.098973    1.3761387e-06 58.47245     0.040481027  -32.882469  
110.3685     3.5339456e-06 164.5594     1.0284407e-06 98.561882    2.3255218e-06 59.047718    0.039534982  -30.847757  
125.36307    1.695711e-06 -33.428226   2.0947009e-06 -156.10043   4.2025601e-07 -66.456596   0.038805697  -29.176352  
142.39478    3.3198335e-06 49.952225    3.6140989e-06 -35.504845   4.8686306e-06 6.1158419    0.03823458   -27.905411  
161.7404     1.6740092e-06 -95.09404    3.9649253e-06 52.534805    2.6648388e-06 8.216116     0.037784372  -27.001461  
183.71431    2.2539302e-06 -165.38023   6.9573832e-07 38.515976    4.3055688e-06 0.0014556585 0.037439145  -26.501158  
208.67355    2.469231e-06 177.19617    4.7859548e-06 47.744717    2.0635434e-06 -82.162895   0.037166912  -26.398046  
237.02376    3.7399691e-06 -157.04526   4.0561163e-06 152.49985    3.5640055e-06 56.841465    0.036953699  -26.698145  
269.22559    3.5141197e-06 89.770195    6.6753873e-06 -73.210327   3.2936925e-06 135.29787    0.036789782  -27.420193  
305.80234    3.7673601e-06 -57.026966   1.019076e-06 42.73518     3.5886383e-06 -45.550377   0.036660697  -28.566633  
347.34836    2.9116127e-06 -168.28641   7.3970282e-06 -121.81399   4.3296286e-06 130.35033    0.036546212  -30.17638   
394.53879    2.4002538e-06 34.0228      3.3711692e-06 -88.560745   1.8767287e-06 -10.188624   0.03646132   -32.2747    
448.14047    4.7879025e-06 125.77525    1.8906908e-06 -53.30463    3.1959005e-06 30.455585    0.036393367  -34.885273  
509.02444    1.5544906e-06 -54.580593   1.6139016e-06 22.008541    6.1572887e-06 45.140308    0.036329463  -38.078506  
578.18005    2.4459996e-06 119.61861    1.4218108e-06 0.19331188   1.5209082e-06 -83.283852   0.036275689  -41.864872  
656.73102    3.5247319e-06 152.15404    2.4283188e-06 -175.47636   4.8047941e-06 61.704445    0.036215249  -46.349911  
745.95392    2.548283e-06 134.13855    2.52687e-06  -129.67363   6.1761585e-07 -114.95856   0.036161475  -51.571129  
847.29852    1.1619195e-06 -130.86627   2.1883127e-06 64.70208     3.7350389e-06 -4.6469855   0.03609753   -57.630016  
962.41174    1.0584642e-06 130.4743     5.1416955e-06 5.587451     3.5322696e-06 87.121681    0.036021542  -64.628471  
1093.1641    2.7146298e-06 -2.650322    2.9219068e-06 44.140442    8.5458151e-07 78.894279    0.035939571  -72.679871  
1241.6804    5.012575e-06 -106.9529    5.6500071e-06 -24.16584    1.2589541e-06 -65.697563   0.035833545  -81.903572  
1410.374     6.4622782e-07 -44.202057   2.7342269e-06 -173.42169   2.9260457e-06 -76.23111    0.035709083  -92.454391  
1601.9861    1.7194569e-06 70.045769    1.7681513e-06 -145.32555   1.7342095e-06 153.87042    0.035554163  -104.50059  
1819.6305    3.4410816e-06 -95.451576   2.8011725e-06 -142.67162   1.0920008e-06 -145.93805   0.035359561  -118.25014  
2066.8438    3.0481222e-06 -47.106251   3.1332413e-06 102.4649     1.767826e-06 40.890442    0.035119444  -133.90916  
2347.6433    1.7059664e-06 -5.9171901   2.3461914e-06 -66.682632   3.4653433e-06 -136.30252   0.034823056  -151.74374  
2666.592     4.5081472e-07 56.127785    2.0527543e-06 -51.984863   1.7717761e-06 -38.784615   0.034447327  -172.04811  
3028.8728    3.5432179e-06 -69.114525   7.607473e-06 130.36452    4.3225559e-06 -15.708482   0.033993311  164.83331   
3440.3726    1.8054619e-06 -129.43797   5.9530357e-06 -102.38763   4.0323807e-06 -139.04738   0.033445004  138.50092   
3907.7786    5.5727537e-07 99.254532    3.821533e-06 -135.79187   6.3249342e-07 137.99388    0.032783214  108.48602   
4438.6855    3.3141157e-06 -172.37315   3.7518357e-06 113.38402    3.257313e-06 -43.390732   0.031984393  74.209885   
5041.7217    3.0753315e-06 154.30045    3.4866387e-06 111.33369    4.9177925e-06 45.410912    0.031026486  34.967358   
5726.6851    2.2032884e-06 147.45796    2.1061867e-06 -7.169167    7.462761e-07 74.535652    0.029835565  -10.124106  
6504.7075    9.9151328e-07 -88.744347   4.1546855e-06 118.4836     7.8469875e-06 61.110622    0.028266627  -62.206108  
7388.4312    1.8403333e-06 -51.19817    2.0307641e-06 95.233879    1.3240092e-06 -178.75505   0.026043514  -122.66103  
8392.2168    1.6035581e-06 -110.39074   4.6727187e-06 -126.67072   4.4498634e-06 -152.90361   0.0227475    167.07726   
9532.375     6.39579e-06  54.808163    1.7494101e-06 27.725451    4.6171581e-06 96.422409    0.018023979  86.227928   
10827.436    1.2120059e-06 -132.40207   1.516957e-06 22.799965    3.5588616e-06 -177.98534   0.012335614  -4.3334141  
12298.44     3.3375559e-06 29.601683    4.4882586e-06 -57.295353   2.4768713e-06 -31.816015   0.0071078194 -101.76756  
13969.296    1.5936002e-06 -78.73513    3.9849147e-06 -114.06016   1.4523486e-06 147.59442    0.0035334411 156.47374   
15867.151    3.0248596e-06 -179.37845   5.8606447e-06 107.5328     3.9131992e-06 -112.33753   0.0015865333 50.837124   
18022.848    5.1191018e-06 -24.050709   1.9627362e-06 64.201942    4.9000306e-07 70.080505    0.00066411833 -59.937477  
20471.416    3.1849288e-06 5.5023475    3.8133646e-06 128.97081    2.3639436e-06 -53.6278     0.00026609865 -179.13286  
23252.645    1.1904168e-06 124.57426    6.8742565e-06 165.18007    3.7286459e-06 132.67384    0.00010367227 52.937675   
26411.727    2.7691328e-06 115.28549    1.6066393e-06 -168.82495   2.6327368e-06 34.441582    3.5191202e-05 -87.113457  
30000        1.1284191e-06 13.200983    2.8062266e-06 -70.123253   3.1284117e-06 30.055197    1.2986876e-05 122.88328   