# Filename:      /home/cds/Sean/2016-05-20-HV-Amp-TFs/10000-count-ss-two-whiteners-channel-three
# Plot type:     Transfer function
# Output Format: XY  
# Channels:             A                         B                Conversion
# Column 1   G2:SSM-GENERAL_THREE_EXC    G2:SSM-GENERAL_ONE_IN1    Magnitude
# Column 2   G2:SSM-GENERAL_THREE_EXC    G2:SSM-GENERAL_ONE_IN1    Phase (degree)
# Column 3   G2:SSM-GENERAL_THREE_EXC    G2:SSM-GENERAL_TWO_IN1    Magnitude
# Column 4   G2:SSM-GENERAL_THREE_EXC    G2:SSM-GENERAL_TWO_IN1    Phase (degree)
# Column 5   G2:SSM-GENERAL_THREE_EXC    G2:SSM-GENERAL_THREE_IN1  Magnitude
# Column 6   G2:SSM-GENERAL_THREE_EXC    G2:SSM-GENERAL_THREE_IN1  Phase (degree)
# Column 7   G2:SSM-GENERAL_THREE_EXC    G2:SSM-GENERAL_FOUR_IN1   Magnitude
# Column 8   G2:SSM-GENERAL_THREE_EXC    G2:SSM-GENERAL_FOUR_IN1   Phase (degree)
# Data:
0.7676996    1.0460922e-07 -125.31793   2.6429618e-07 -178.70288   0.35410956   -5.7238765   6.2230793e-06 -23.016367  
0.87199855   6.7541475e-07 115.47546    7.9765408e-07 38.446136    0.35360265   -6.4985375   3.0728888e-06 8.2714119   
0.99046749   5.6040591e-07 92.10672     3.1966331e-07 75.174591    0.3529492    -7.3761458   3.1165166e-06 -156.664    
1.1250315    6.9250552e-07 -159.24994   1.0061628e-06 -33.350769   0.35210818   -8.369585    8.1860398e-06 136.73022   
1.2778772    9.4155791e-07 108.48812    8.1178348e-07 -59.379353   0.35103661   -9.4924641   1.0088194e-05 -24.623672  
1.4514885    3.4551974e-07 161.75748    7.104984e-07 88.011749    0.34966213   -10.760656   3.8906801e-06 101.98225   
1.6486864    4.9656848e-07 78.373772    5.7503809e-07 -121.27461   0.34790552   -12.189579   2.5361344e-06 -13.26108   
1.8726754    3.7434575e-07 78.884926    6.1330883e-07 -114.99464   0.34566322   -13.797199   2.7835099e-06 -37.554031  
2.1270955    1.9013531e-07 -36.599552   6.3122883e-07 -110.40003   0.34284288   -15.598639   3.3613662e-06 -24.856064  
2.4160807    7.1244949e-07 -107.4526    2.9521507e-07 -56.728878   0.3393569    -17.613701   4.0464929e-06 70.074203   
2.7443271    1.103992e-07 -49.606514   1.3430199e-06 14.742476    0.33497936   -19.860384   5.3075578e-06 -20.158924  
3.1171689    7.2776805e-07 -45.927052   4.1258315e-07 -31.995083   0.32952505   -22.351439   4.0454074e-06 -22.151442  
3.5406647    9.1172569e-07 -45.569431   8.4850768e-07 156.71838    0.3227796    -25.096695   3.156701e-06 -28.820984  
4.0216961    1.2503027e-06 -116.15379   4.3152926e-07 64.310394    0.31453675   -28.0937     8.2208608e-06 -2.8078575  
4.5680799    1.1245124e-06 -36.313007   6.3302929e-07 -98.892044   0.30460718   -31.337969   8.9628484e-06 -1.894999   
5.1886954    9.5284003e-07 38.958454    4.6757194e-07 163.4081     0.29284969   -34.810028   1.6603932e-06 -56.378525  
5.8936267    6.6661755e-07 107.8663     1.1659441e-06 24.04355     0.27915591   -38.469994   2.0676141e-06 7.6420431   
6.6943297    2.2055563e-06 133.83369    5.7040796e-07 108.41134    0.26350796   -42.256824   8.7339859e-06 -84.773827  
7.6038151    8.0983324e-07 177.78041    1.7186395e-06 91.938942    0.24606623   -46.075203   2.3412715e-06 -41.280937  
8.6368628    1.5917642e-06 -117.7916    1.5341972e-06 -5.8546262   0.22715822   -49.82008    2.2852039e-06 -66.414581  
9.8102589    1.2322856e-06 -46.296021   9.7362272e-07 -58.125309   0.20726836   -53.359554   1.9507688e-06 -99.316193  
11.143071    8.4771165e-07 40.049465    1.5090104e-06 -35.572292   0.18700159   -56.557201   7.3812186e-07 -75.531693  
12.656959    1.1942846e-06 10.599223    1.5879506e-06 132.55833    0.16700079   -59.272446   2.8687045e-06 -64.377144  
14.376522    1.5852308e-06 148.66376    2.5425397e-06 -173.01631   0.14787054   -61.391609   1.4808938e-06 -79.1371    
16.329702    1.7095357e-07 -24.899427   1.626945e-06 -54.950787   0.13013582   -62.788364   1.0017881e-06 -36.76955   
18.548241    1.0656142e-06 14.363917    1.3871974e-06 58.480976    0.11415283   -63.4072     1.6696242e-06 -78.541809  
21.06819     1.5183456e-06 -163.63879   4.9341855e-07 -146.31294   0.10011233   -63.231144   6.7096471e-06 -178.82927  
23.930494    1.0054246e-06 -77.174377   2.5561442e-06 -30.516642   0.088071451  -62.285988   2.1511246e-06 174.69806   
27.181669    2.7128094e-06 178.97112    3.0248859e-06 -111.81857   0.077897936  -60.608868   9.0423885e-07 -130.61693  
30.874546    8.998627e-07 106.34818    1.3148222e-06 7.5687804    0.069458991  -58.32555    9.1943213e-07 98.624519   
35.069134    1.6634033e-06 -11.087434   1.0360975e-06 -7.625463    0.062556908  -55.564373   2.1212045e-06 -99.155083  
39.833591    1.7534109e-06 -112.19167   2.0024079e-06 -53.759537   0.056994081  -52.48674    4.1371904e-06 -58.604881  
45.24535     1.3693985e-06 -2.3079193   2.9628366e-06 -173.85585   0.052486815  -49.179222   1.3225679e-06 -108.72183  
51.392342    2.268067e-06 -14.819452   1.6372154e-06 1.3729492    0.04892502   -45.82288    2.7795461e-06 80.274292   
58.374458    1.5084404e-06 122.6805     6.3657831e-07 -123.37687   0.046127714  -42.524975   2.2425527e-06 -100.77333  
66.305161    2.1816816e-06 45.609951    2.4992166e-06 -43.169144   0.043901287  -39.396343   1.4936269e-06 -148.69118  
75.313316    5.6105073e-06 -132.99084   1.0098879e-06 -126.47221   0.042125467  -36.497452   2.4264198e-06 -27.982718  
85.545311    2.6128575e-06 -37.857998   1.8635624e-06 139.15189    0.040768627  -33.902924   4.1508015e-06 -156.55606  
97.167419    1.7156025e-06 127.34975    4.9148039e-06 122.8779     0.039712496  -31.623659   1.0641451e-06 -133.23524  
110.3685     1.5286971e-06 6.3710408    2.3498137e-06 2.9923134    0.038901076  -29.701647   3.2700623e-06 -11.567581  
125.36307    1.906508e-06 -100.5437    5.4250008e-06 -129.05222   0.038197901  -28.138275   3.0688639e-06 -129.21901  
142.39478    3.9843012e-06 -51.621635   2.8880045e-06 57.135887    0.037713885  -26.958414   2.4958151e-06 -36.014648  
161.7404     3.4127054e-06 157.95398    1.7600161e-06 -57.313236   0.037311342  -26.171257   4.3508289e-06 -22.830933  
183.71431    3.8078631e-06 141.69487    4.245092e-06 160.36024    0.037000038  -25.766214   1.5693259e-06 147.92935   
208.67355    4.6508176e-06 98.695869    1.3766838e-06 86.147354    0.036740467  -25.738712   3.6763927e-06 -115.89545  
237.02376    2.1890176e-06 90.419518    1.5736847e-06 12.131322    0.036548417  -26.11553    1.2713358e-06 -90.496178  
269.22559    2.3613068e-06 44.527107    2.0003629e-06 -151.86908   0.036406521  -26.907234   2.6600985e-06 26.386755   
305.80234    1.2455093e-06 -170.87947   4.4421563e-06 -14.283145   0.036297586  -28.113422   2.262201e-06 -150.4565   
347.34836    2.512247e-06 -82.176483   3.353892e-06 -163.78458   0.036213417  -29.784319   2.9687133e-06 -26.110903  
394.53879    4.8241436e-06 91.47451     2.3442997e-06 -88.294319   0.03614144   -31.938311   2.9135354e-06 -16.692127  
448.14047    1.0950223e-06 -75.702759   3.5583537e-06 101.19043    0.03611226   -34.602905   3.1260834e-06 -52.622974  
509.02444    2.6182245e-06 54.287045    2.3667249e-06 43.029865    0.036014024  -37.829491   4.2104907e-06 -37.928108  
578.18005    1.9864506e-06 -82.282921   1.2917822e-06 -147.97281   0.035929803  -41.667179   1.7074181e-06 -52.218754  
656.73102    1.0833992e-06 166.9071     1.4030902e-06 25.6793      0.035885673  -46.175892   1.8030048e-06 -126.82386  
745.95392    2.1130784e-06 -112.56347   3.7935511e-06 -14.905338   0.03587459   -51.426479   2.3108764e-06 -24.468502  
847.29852    1.6108223e-06 -16.979006   3.1290485e-06 31.670609    0.03584177   -57.520336   4.5180168e-06 -152.04053  
962.41174    2.6340376e-06 -118.50943   2.8263992e-06 12.964408    0.035726886  -64.544563   3.4152156e-06 50.683811   
1093.1641    4.4118892e-06 151.95053    1.3020332e-06 78.016243    0.035627648  -72.624352   3.3633785e-06 -126.37833  
1241.6804    1.721038e-06 -115.35349   6.9050361e-07 -24.449959   0.035552759  -81.874123   5.0906556e-06 -122.54673  
1410.374     4.2119996e-06 -151.48843   2.5156257e-06 100.79556    0.03540371   -92.458221   2.718207e-06 162.27164   
1601.9861    3.153229e-06 -29.646275   1.3163642e-06 -81.916061   0.035251077  -104.5359    3.8479534e-06 140.38786   
1819.6305    4.787345e-06 55.517422    1.0579159e-06 -42.445557   0.035123803  -118.31381   2.9748348e-06 171.35602   
2066.8438    3.8220028e-06 -172.55632   3.6940294e-06 28.345905    0.034862984  -134.00818   3.5688663e-06 151.49063   
2347.6433    1.5613505e-06 44.772865    1.1079962e-06 3.2672274    0.034517452  -151.90169   6.2038848e-06 141.67972   
2666.592     2.4979804e-06 -15.278732   2.1245219e-06 -51.905037   0.03425888   -172.24298   2.3869106e-06 115.47817   
3028.8728    1.5228117e-07 19.454453    2.022329e-06 -50.602409   0.033751644  164.57379    6.4904384e-06 119.9106    
3440.3726    3.9927017e-06 -13.678039   3.5689854e-06 62.233078    0.033281166  138.15742    6.3056109e-06 69.676247   
3907.7786    3.994609e-06 -112.42661   2.2643715e-06 -26.160868   0.032612003  108.04236    6.1123555e-06 12.338804   
4438.6855    1.4165978e-06 -66.170319   2.6894818e-06 -164.9008    0.031817667  73.646217    6.5784134e-06 -38.146347  
5041.7217    2.0299972e-06 -137.09973   3.3171755e-06 7.9108133    0.030874625  34.242817    7.5607222e-06 -33.747311  
5726.6851    8.1525565e-07 -59.215977   2.5675922e-06 90.988075    0.029669385  -11.086225   4.2505485e-06 -35.363731  
6504.7075    2.6177613e-06 -27.18541    6.1672231e-06 154.49718    0.028075242  -63.4361     2.000452e-06 -168.62238  
7388.4312    6.0032025e-06 -154.50642   3.8658791e-06 -3.8872309   0.025816582  -124.23621   8.5304682e-06 -179.72687  
8392.2168    2.9630328e-06 108.76665    3.4753925e-06 -31.38776    0.022439396  165.15302    4.3655882e-06 107.55367   
9532.375     3.3626111e-06 61.575954    3.0596293e-06 -35.38673    0.017643636  83.985825    5.6085341e-06 8.2592392   
10827.436    4.4418275e-06 135.64769    5.0034885e-07 -17.941221   0.011962964  -6.6267343   1.769791e-06 -106.93793  
12298.44     2.5388395e-06 -88.120071   1.3218296e-06 -54.925392   0.0068453019 -103.86685   1.7443523e-06 -167.62387  
13969.296    2.1950696e-06 45.009289    2.934413e-06 176.91649    0.0033908149 154.68706    4.7497142e-06 71.506905   
15867.151    3.5492303e-06 -169.61734   2.6242369e-06 -138.86984   0.0015100385 49.174686    4.6912096e-06 -55.908882  
18022.848    6.5708781e-07 176.74153    2.2028792e-06 41.629383    0.00064729294 -61.921326   6.4412657e-06 -39.182995  
20471.416    2.8112274e-06 -37.385414   3.2847097e-06 -128.51508   0.0002523562 179.32358    3.2229077e-06 7.5543108   
23252.645    3.2892797e-06 54.44804     3.2798773e-06 114.45025    9.4493975e-05 52.050072    4.7041467e-06 -154.381    
26411.727    4.9668338e-06 -67.161919   6.1401661e-06 73.244812    3.3756547e-05 -96.622208   1.8558015e-06 131.39125   
30000        3.7803059e-06 -122.25052   4.9133096e-06 85.790565    1.8836088e-05 113.03835    5.3432416e-07 -167.52145  